Nickel(II) bis(N,N-dioctyldithiocarbamate), ID: C28771031
  NIST    18053110532D 1   1.00000     0.00000      
Copyright by the U.S. Sec. Commerce on behalf of U.S.A. All rights reserved.
 41 40  0     0  0              1 V2000
    7.8832    0.0000    0.0000 S   0  0  0  0  0  0           0  0  0
    7.8832    1.0042    0.0000 C   0  0  0  0  0  0           0  0  0
    8.7367    1.5063    0.0000 S   0  0  0  0  0  0           0  0  0
    6.9794    1.5063    0.0000 N   0  0  0  0  0  0           0  0  0
    9.5401    1.0042    0.0000 Ni  0  0  0  0  0  0           0  0  0
   10.3937    1.5063    0.0000 S   0  0  0  0  0  0           0  0  0
   11.2975    1.0042    0.0000 C   0  0  0  0  0  0           0  0  0
   11.2975    0.0000    0.0000 S   0  0  0  0  0  0           0  0  0
   12.2013    1.5063    0.0000 N   0  0  0  0  0  0           0  0  0
   12.2013    2.5106    0.0000 C   0  0  0  0  0  0           0  0  0
   13.0549    3.0127    0.0000 C   0  0  0  0  0  0           0  0  0
   13.0549    4.0169    0.0000 C   0  0  0  0  0  0           0  0  0
   13.1051    1.0042    0.0000 C   0  0  0  0  0  0           0  0  0
   13.9587    1.5565    0.0000 C   0  0  0  0  0  0           0  0  0
    6.0756    1.0042    0.0000 C   0  0  0  0  0  0           0  0  0
    5.2220    1.5063    0.0000 C   0  0  0  0  0  0           0  0  0
    6.9794    2.5106    0.0000 C   0  0  0  0  0  0           0  0  0
   14.8625    1.1549    0.0000 C   0  0  0  0  0  0           0  0  0
    4.3684    1.1046    0.0000 C   0  0  0  0  0  0           0  0  0
    6.1258    3.0629    0.0000 C   0  0  0  0  0  0           0  0  0
    6.1258    4.0169    0.0000 C   0  0  0  0  0  0           0  0  0
   13.9085    4.5692    0.0000 C   0  0  0  0  0  0           0  0  0
   13.9085    5.5734    0.0000 C   0  0  0  0  0  0           0  0  0
   14.7621    6.1258    0.0000 C   0  0  0  0  0  0           0  0  0
    5.2722    4.5190    0.0000 C   0  0  0  0  0  0           0  0  0
    5.2722    5.5232    0.0000 C   0  0  0  0  0  0           0  0  0
    4.4186    6.0253    0.0000 C   0  0  0  0  0  0           0  0  0
    3.5148    1.6068    0.0000 C   0  0  0  0  0  0           0  0  0
    2.5608    1.2051    0.0000 C   0  0  0  0  0  0           0  0  0
    1.7574    1.7574    0.0000 C   0  0  0  0  0  0           0  0  0
   15.6659    1.6570    0.0000 C   0  0  0  0  0  0           0  0  0
   16.5697    1.2051    0.0000 C   0  0  0  0  0  0           0  0  0
   17.4233    1.7574    0.0000 C   0  0  0  0  0  0           0  0  0
    4.4186    7.0296    0.0000 C   0  0  0  0  0  0           0  0  0
   14.7621    7.1300    0.0000 C   0  0  0  0  0  0           0  0  0
    0.8536    1.3055    0.0000 C   0  0  0  0  0  0           0  0  0
   18.2769    1.2553    0.0000 C   0  0  0  0  0  0           0  0  0
   19.1305    1.8076    0.0000 C   0  0  0  0  0  0           0  0  0
    0.0000    1.8578    0.0000 C   0  0  0  0  0  0           0  0  0
    3.5650    7.4815    0.0000 C   0  0  0  0  0  0           0  0  0
   15.5655    7.6823    0.0000 C   0  0  0  0  0  0           0  0  0
  1  2  2  0     0  0
  2  3  1  0     0  0
  2  4  1  0     0  0
  3  5  1  0     0  0
  4 15  1  0     0  0
  4 17  1  0     0  0
  5  6  1  0     0  0
  6  7  1  0     0  0
  7  8  2  0     0  0
  7  9  1  0     0  0
  9 10  1  0     0  0
  9 13  1  0     0  0
 10 11  1  0     0  0
 11 12  1  0     0  0
 12 22  1  0     0  0
 13 14  1  0     0  0
 14 18  1  0     0  0
 15 16  1  0     0  0
 16 19  1  0     0  0
 17 20  1  0     0  0
 18 31  1  0     0  0
 19 28  1  0     0  0
 20 21  1  0     0  0
 21 25  1  0     0  0
 22 23  1  0     0  0
 23 24  1  0     0  0
 24 35  1  0     0  0
 25 26  1  0     0  0
 26 27  1  0     0  0
 27 34  1  0     0  0
 28 29  1  0     0  0
 29 30  1  0     0  0
 30 36  1  0     0  0
 31 32  1  0     0  0
 32 33  1  0     0  0
 33 37  1  0     0  0
 34 40  1  0     0  0
 35 41  1  0     0  0
 36 39  1  0     0  0
 37 38  1  0     0  0
M  END
