4,4'-(4-CHLOROBENZYLIDENE)BIS[N,N-BIS(2-HYDROXYETHYL)ANILINE], ID: C342777542
  NIST    18053109052D 1   1.00000     0.00000      
Copyright by the U.S. Sec. Commerce on behalf of U.S.A. All rights reserved.
 34 36  0     0  0              1 V2000
    6.1107    4.5079    0.0000 C   0  0  0  0  0  0           0  0  0
    5.2092    3.9570    0.0000 C   0  0  0  0  0  0           0  0  0
    6.9622    3.9570    0.0000 C   0  0  0  0  0  0           0  0  0
    6.1107    5.4596    0.0000 C   0  0  0  0  0  0           0  0  0
    4.3577    4.4578    0.0000 C   0  0  0  0  0  0           0  0  0
    5.2092    2.9552    0.0000 C   0  0  0  0  0  0           0  0  0
    3.5062    3.9570    0.0000 C   0  0  0  0  0  0           0  0  0
    4.3577    2.4543    0.0000 C   0  0  0  0  0  0           0  0  0
    3.5062    2.9552    0.0000 C   0  0  0  0  0  0           0  0  0
    2.6046    2.4543    0.0000 N   0  0  0  0  0  0           0  0  0
    6.9622    3.0053    0.0000 C   0  0  0  0  0  0           0  0  0
    7.8137    4.5079    0.0000 C   0  0  0  0  0  0           0  0  0
    7.8638    2.4543    0.0000 C   0  0  0  0  0  0           0  0  0
    8.6652    3.9570    0.0000 C   0  0  0  0  0  0           0  0  0
    8.6652    2.9552    0.0000 C   0  0  0  0  0  0           0  0  0
    9.5167    2.4543    0.0000 N   0  0  0  0  0  0           0  0  0
    6.9122    5.9605    0.0000 C   0  0  0  0  0  0           0  0  0
    5.2092    5.9605    0.0000 C   0  0  0  0  0  0           0  0  0
    6.9122    7.0123    0.0000 C   0  0  0  0  0  0           0  0  0
    5.2092    7.0123    0.0000 C   0  0  0  0  0  0           0  0  0
    6.1107    7.4631    0.0000 C   0  0  0  0  0  0           0  0  0
    6.1107    8.4649    0.0000 Cl  0  0  0  0  0  0           0  0  0
    1.7531    3.0053    0.0000 C   0  0  0  0  0  0           0  0  0
    2.6046    1.5026    0.0000 C   0  0  0  0  0  0           0  0  0
    9.5167    1.5026    0.0000 C   0  0  0  0  0  0           0  0  0
   10.4183    2.9552    0.0000 C   0  0  0  0  0  0           0  0  0
   10.3682    1.0018    0.0000 C   0  0  0  0  0  0           0  0  0
   11.3199    2.4543    0.0000 C   0  0  0  0  0  0           0  0  0
   12.1714    2.9552    0.0000 O   0  0  0  0  0  0           0  0  0
   10.3682    0.0000    0.0000 O   0  0  0  0  0  0           0  0  0
    0.8515    2.5044    0.0000 C   0  0  0  0  0  0           0  0  0
    0.0000    3.0053    0.0000 O   0  0  0  0  0  0           0  0  0
    1.7030    1.0018    0.0000 C   0  0  0  0  0  0           0  0  0
    1.7030    0.0000    0.0000 O   0  0  0  0  0  0           0  0  0
  1  2  1  0     0  0
  1  3  1  0     0  0
  1  4  1  0     0  0
  5  2  2  0     0  0
  2  6  1  0     0  0
 11  3  2  0     0  0
  3 12  1  0     0  0
 17  4  2  0     0  0
  4 18  1  0     0  0
  7  5  1  0     0  0
  6  8  2  0     0  0
  9  7  2  0     0  0
  8  9  1  0     0  0
  9 10  1  0     0  0
 10 23  1  0     0  0
 10 24  1  0     0  0
 13 11  1  0     0  0
 12 14  2  0     0  0
 15 13  2  0     0  0
 14 15  1  0     0  0
 15 16  1  0     0  0
 16 25  1  0     0  0
 16 26  1  0     0  0
 19 17  1  0     0  0
 18 20  2  0     0  0
 21 19  2  0     0  0
 20 21  1  0     0  0
 21 22  1  0     0  0
 23 31  1  0     0  0
 24 33  1  0     0  0
 25 27  1  0     0  0
 26 28  1  0     0  0
 27 30  1  0     0  0
 28 29  1  0     0  0
 31 32  1  0     0  0
 33 34  1  0     0  0
M  END
